File: B0045_lstm_ready.csv
AvgVoltage_x,MinVoltage,AvgCurrent_x,MaxTemp_x,DischargeCapacity_Ah,Cycle,RUL,AvgVoltage_y,AvgCurrent_y,MaxTemp_y,CycleCapacity_Ah,Avg_Battery_Impedance,Max_Battery_Impedance,Avg_Rectified_Impedance,Avg_Current_Ratio,Avg_Sense_Current,Avg_Battery_Current
3.35071,1.99088,-0.679568,15.7104,1.2129,1,5,4.20389,0.360759,8.78565,1.06355e-09,0.269326,0.46342,0.110427,3.21501,881.035,282.01
3.34371,1.9876,-0.684795,16.3279,1.07398,2,4,4.20385,0.353247,8.85313,1.04291e-09,0.263835,0.442214,0.109139,3.19388,880.374,283.023
3.35711,1.98854,-0.664616,16.1905,1.03136,3,3,4.20414,0.342066,8.77629,1.0096e-09,0.269724,0.459632,0.111355,3.23286,882.55,280.75
3.35865,1.96924,-0.650932,16.4456,1.00102,4,2,4.20416,0.33361,8.77535,9.84851e-10,0.263229,0.439918,0.108945,3.19294,880.257,282.955
3.36606,1.98305,-0.640228,16.6528,0.976617,5,1,4.20421,0.326176,8.71806,9.63616e-10,0.270683,0.465533,0.111061,3.23083,882.174,281.019
3.36791,1.98046,-0.631703,16.626,0.956943,6,0,4.20429,0.319088,8.48316,9.43085e-10,0.268479,0.448752,0.111659,3.22443,882.404,280.978
3.35775,1.98222,-0.617623,16.2317,0.93383,7,0,4.20431,0.31999,8.58096,9.48815e-10,0.277997,0.499748,0.114788,3.2712,884.853,278.4
3.36966,1.99871,-0.627554,16.1857,0.951632,8,0,4.20411,0.317894,8.56076,9.38959e-10,0.268756,0.444457,0.11297,3.23374,882.915,280.325
3.37473,1.97927,-0.622796,16.5262,0.934923,9,0,4.20433,0.312139,8.84038,9.21731e-10,0.273697,0.472342,0.112825,3.25662,883.586,279.377
3.3818,1.96405,-0.616436,15.1964,0.918153,10,0,4.20421,0.30788,8.53855,9.09567e-10,0.264523,0.447551,0.108988,3.19729,880.397,282.732
3.38518,1.99656,-0.612495,16.3544,0.904689,11,0,4.20442,0.303055,8.77928,8.97178e-10,0.281637,0.523425,0.116621,3.29518,886.365,276.899
3.38131,1.96761,-0.612075,15.5702,0.899556,12,0,4.20452,0.298745,8.55644,8.85741e-10,0.27287,0.460035,0.113806,3.25408,884.061,279.191
3.34904,1.9877,-0.615898,16.4819,0.917214,13,0,4.20429,0.319584,8.64083,9.46158e-10,0.278479,0.472258,0.116848,3.29618,886.336,276.77
3.36945,1.99572,-0.625377,16.6864,0.937705,14,0,4.20422,0.311482,8.69401,9.22589e-10,0.276861,0.466902,0.115859,3.27736,885.404,277.599
3.37711,1.97239,-0.618022,16.5273,0.91769,15,0,4.20427,0.30489,8.61296,9.03708e-10,0.281502,0.519063,0.116402,3.29637,886.31,276.821
3.3821,1.97601,-0.612175,16.3251,0.896669,16,0,4.20443,0.299754,8.74071,8.87754e-10,0.27302,0.458309,0.114645,3.26176,884.509,278.551
3.386,1.97868,-0.606432,16.1878,0.882598,17,0,4.20444,0.295137,8.75148,8.75085e-10,0.285897,0.595832,0.117076,3.30457,886.923,276.374
3.38303,1.98665,-0.6064,16.5487,0.87503,18,0,4.20464,0.290571,8.5827,8.61839e-10,0.2742,0.460876,0.114695,3.26248,884.636,278.492
3.37881,1.99153,-0.602253,15.8934,0.862348,19,0,4.20431,0.291039,8.35285,8.62159e-10,0.278287,0.50901,0.113908,3.27155,884.529,278.43
3.40671,2.94242,-0.99419,11.6245,0.663382,20,0,4.20321,0.235755,9.90478,7.00312e-10,0.271976,0.458536,0.113401,3.24686,883.628,279.523
3.38906,1.99356,-0.586186,16.2736,0.867798,21,0,4.20453,0.28128,8.58966,8.33936e-10,0.289564,0.620488,0.119446,3.33528,888.379,274.508
3.37839,1.99371,-0.603725,16.5777,0.854437,22,0,4.20444,0.284232,8.49789,8.43689e-10,0.274499,0.459982,0.11495,3.27008,884.923,278.034
3.37793,1.9841,-0.60398,16.4519,0.846195,23,0,4.20475,0.279423,8.51078,8.32088e-10,0.287136,0.604039,0.118374,3.31751,887.572,275.54
3.37272,1.98183,-0.601755,16.6604,0.839316,24,0,4.20447,0.282153,8.28562,8.38369e-10,0.27781,0.469529,0.115898,3.28276,885.677,277.294
3.38074,1.9985,-0.603809,16.1928,0.83677,25,0,4.20455,0.279981,8.58138,8.30112e-10,0.294048,0.704674,0.120044,3.34281,889.032,274.108
3.38891,1.98866,-0.600483,14.7429,0.826516,26,0,4.20448,0.276834,8.20802,8.22354e-10,0.282326,0.475624,0.119108,3.31899,887.767,275.01
3.38554,1.98366,-0.603308,14.6935,0.821175,27,0,4.20454,0.274887,8.20068,8.16992e-10,0.286744,0.595592,0.118117,3.31686,887.612,275.67
3.37569,1.97057,-0.606562,15.8698,0.822653,28,0,4.20466,0.272036,8.35918,8.10529e-10,0.282033,0.491131,0.11768,3.30315,886.879,275.979
3.37794,1.97178,-0.60144,14.8297,0.811467,29,0,4.20454,0.274073,8.34528,8.14269e-10,0.295186,0.755511,0.118941,3.33911,888.301,274.537
3.37356,1.99384,-0.609801,15.9065,0.818259,30,0,4.20461,0.272816,8.481,8.10504e-10,0.281703,0.508154,0.116817,3.29564,886.459,276.64
3.36874,1.99936,-0.612066,16.3538,0.815646,31,0,4.20449,0.272359,8.59033,8.09179e-10,0.291138,0.649621,0.119657,3.33939,888.501,274.266
3.3718,1.99328,-0.613283,15.0765,0.810042,32,0,4.20463,0.271297,8.20968,8.06449e-10,0.277457,0.468521,0.115995,3.28245,885.654,277.187
3.36636,1.98011,-0.613952,16.0459,0.807999,33,0,4.20466,0.267137,8.18286,7.96868e-10,0.286078,0.612794,0.116554,3.30567,886.726,276.413
3.34228,1.9944,-0.600481,16.2482,0.819451,34,0,4.20463,0.288528,8.51915,8.58936e-10,0.283115,0.496738,0.118336,3.3127,887.306,275.453
3.37227,1.99131,-0.612942,15.7619,0.850201,35,0,4.20448,0.282583,8.58507,8.39051e-10,0.278602,0.475094,0.116179,3.29117,886.103,276.958
3.35763,1.98181,-0.624215,16.3494,0.847236,36,0,4.20449,0.276615,8.57748,8.31755e-10,0.284311,0.485844,0.119765,3.33055,888.334,274.281
3.3698,1.99999,-0.613917,16.2225,0.825208,37,0,4.20459,0.275252,8.5755,8.17394e-10,0.285777,0.616918,0.115981,3.30141,886.36,276.774
3.37667,1.97466,-0.609242,14.78,0.81206,38,0,4.20457,0.27097,8.2668,8.06524e-10,0.277308,0.468551,0.115895,3.28149,885.559,277.301
3.35669,1.97818,-0.621437,16.3571,0.817439,39,0,4.20477,0.269275,8.43955,8.02524e-10,0.287869,0.606918,0.118235,3.325,887.934,275.145
3.37166,1.98451,-0.604963,15.304,0.794732,40,0,4.20462,0.268073,8.31457,7.97065e-10,0.282911,0.48583,0.118439,3.31377,887.859,275.412
3.35846,1.99217,-0.620639,16.2981,0.804826,41,0,4.20164,0.263734,8.48388,7.84883e-10,0.282911,0.48583,0.118439,3.31377,887.859,275.412
3.37332,1.99912,-0.601388,15.0882,0.773814,42,0,4.20454,0.26424,8.17457,7.85542e-10,0.282911,0.48583,0.118439,3.31377,887.859,275.412
3.36763,1.97908,-0.614627,15.2018,0.787747,43,0,4.20459,0.262757,8.25946,7.81987e-10,0.282911,0.48583,0.118439,3.31377,887.859,275.412
3.36332,1.99864,-0.617109,15.8205,0.784963,44,0,4.20475,0.259408,8.08602,7.73581e-10,0.282911,0.48583,0.118439,3.31377,887.859,275.412
3.34649,1.97137,-0.620923,15.5807,0.785817,45,0,4.20457,0.261072,8.48574,7.84955e-10,0.282911,0.48583,0.118439,3.31377,887.859,275.412
3.3599,1.98431,-0.62043,14.525,0.77942,46,0,4.2046,0.260846,8.48287,7.75256e-10,0.282911,0.48583,0.118439,3.31377,887.859,275.412
3.34964,1.99468,-0.624495,16.2563,0.781294,47,0,4.20476,0.260331,8.35038,7.74564e-10,0.282911,0.48583,0.118439,3.31377,887.859,275.412
3.35242,1.97899,-0.621988,15.9165,0.774609,48,0,4.20462,0.258212,8.18222,7.68889e-10,0.282911,0.48583,0.118439,3.31377,887.859,275.412
3.35631,1.96909,-0.624905,15.3227,0.768123,49,0,4.20475,0.253169,8.16257,7.58053e-10,0.282911,0.48583,0.118439,3.31377,887.859,275.412
3.3406,1.99511,-0.623564,16.4355,0.769326,50,0,4.20462,0.258515,8.47729,7.69061e-10,0.282911,0.48583,0.118439,3.31377,887.859,275.412
3.34851,1.9652,-0.627719,14.7529,0.770347,51,0,4.20462,0.257114,8.47379,7.65278e-10,0.282911,0.48583,0.118439,3.31377,887.859,275.412
3.33288,1.98203,-0.634072,16.5733,0.772355,52,0,4.20469,0.256853,8.36648,7.64589e-10,0.282911,0.48583,0.118439,3.31377,887.859,275.412
3.35182,1.9731,-0.626972,14.5284,0.757475,53,0,4.20473,0.25364,8.51718,7.54804e-10,0.282911,0.48583,0.118439,3.31377,887.859,275.412
3.26833,1.99744,-0.759652,15.8283,0.758213,54,0,4.20464,0.250757,8.02534,7.48838e-10,0.282911,0.48583,0.118439,3.31377,887.859,275.412
3.33686,1.97595,-0.585763,15.0509,0.772132,55,0,4.20478,0.271669,8.49411,8.10027e-10,0.282911,0.48583,0.118439,3.31377,887.859,275.412
3.33931,1.99442,-0.623485,16.8789,0.810188,56,0,4.20452,0.267407,8.59815,7.96069e-10,0.282911,0.48583,0.118439,3.31377,887.859,275.412
3.33957,1.97239,-0.625756,16.7529,0.799278,57,0,4.20462,0.263695,8.51633,7.8559e-10,0.282911,0.48583,0.118439,3.31377,887.859,275.412
3.34517,1.99326,-0.62063,16.6307,0.784064,58,0,4.20476,0.261143,8.56316,7.76614e-10,0.282911,0.48583,0.118439,3.31377,887.859,275.412
3.35448,1.98489,-0.614906,15.2707,0.773543,59,0,4.20453,0.258085,8.43747,7.67442e-10,0.282911,0.48583,0.118439,3.31377,887.859,275.412
3.34119,1.96837,-0.620875,16.4381,0.774385,60,0,4.20475,0.254888,8.30821,7.60061e-10,0.282911,0.48583,0.118439,3.31377,887.859,275.412
3.33724,1.9924,-0.595371,15.6599,0.746836,61,0,4.19329,0.247131,8.37976,7.38733e-10,0.282911,0.48583,0.118439,3.31377,887.859,275.412
3.35103,1.97761,-0.589751,15.2657,0.748621,62,0,4.20473,0.260375,8.47519,7.7476e-10,0.282911,0.48583,0.118439,3.31377,887.859,275.412
3.35731,1.99698,-0.612902,15.4599,0.766761,63,0,4.20465,0.254743,8.38753,7.58372e-10,0.282911,0.48583,0.118439,3.31377,887.859,275.412
3.3367,1.9823,-0.62322,16.4727,0.767775,64,0,4.20464,0.254566,8.15628,7.57327e-10,0.282911,0.48583,0.118439,3.31377,887.859,275.412
3.35076,1.97035,-0.613701,15.3219,0.752672,65,0,4.20461,0.250843,8.24753,7.47304e-10,0.282911,0.48583,0.118439,3.31377,887.859,275.412
3.39255,2.93297,-0.990152,11.7091,0.553594,66,0,4.20521,0.194164,8.16861,5.81036e-10,0.282911,0.48583,0.118439,3.31377,887.859,275.412
3.34526,1.9805,-0.572134,15.4692,0.776092,67,0,4.20475,0.262922,8.34276,7.83895e-10,0.282911,0.48583,0.118439,3.31377,887.859,275.412
3.34782,1.97542,-0.606741,15.9092,0.786623,68,0,4.20469,0.259195,8.48454,7.71903e-10,0.282911,0.48583,0.118439,3.31377,887.859,275.412
3.35004,1.98431,-0.609121,16.1283,0.775455,69,0,4.20464,0.255163,8.48188,7.59881e-10,0.282911,0.48583,0.118439,3.31377,887.859,275.412
3.35906,1.98817,-0.59968,15.8033,0.759075,70,0,4.20484,0.251991,8.39868,7.49919e-10,0.282911,0.48583,0.118439,3.31377,887.859,275.412
3.34959,1.98095,-0.606261,15.4635,0.756338,71,0,4.20457,0.250621,8.15833,7.46269e-10,0.282911,0.48583,0.118439,3.31377,887.859,275.412
3.34626,1.96979,-0.605525,16.2695,0.749257,72,0,4.20481,0.246089,8.29326,7.35227e-10,0.282911,0.48583,0.118439,3.31377,887.859,275.412