File: B0043_lstm_ready.csv
AvgVoltage_x,MinVoltage,AvgCurrent_x,MaxTemp_x,DischargeCapacity_Ah,Cycle,RUL,AvgVoltage_y,AvgCurrent_y,MaxTemp_y,CycleCapacity_Ah,Avg_Battery_Impedance,Max_Battery_Impedance,Avg_Rectified_Impedance,Avg_Current_Ratio,Avg_Sense_Current,Avg_Battery_Current
3.47591,2.42131,-1.8551,36.8424,1.73243,1,41,4.2113,0.104881,23.5713,1.4984e-10,0.229481,0.357591,0.0876054,2.89389,857.682,304.728
3.49012,2.39976,-1.88406,36.1286,1.70039,3,39,4.14543,0.608096,33.3758,1.70244e-09,0.221566,0.35385,0.080945,2.81305,852.469,310.959
3.50055,2.37864,-1.91037,36.7526,1.68855,5,37,4.14703,0.604396,34.096,1.6935e-09,0.217649,0.353222,0.0779806,2.78065,849.844,313.871
3.50747,2.41629,-1.9268,36.8314,1.67505,7,35,4.16405,0.532108,33.798,1.46998e-09,0.216752,0.351812,0.0772181,2.77173,848.924,314.569
3.50515,2.46665,-1.92551,36.2237,1.65638,9,33,4.14971,0.587166,35.3386,1.665e-09,0.215729,0.350182,0.0763043,2.76111,848.074,315.514
3.50073,2.40241,-1.92444,36.1961,1.64761,11,31,4.16022,0.584793,26.7838,1.6589e-09,0.21518,0.350584,0.0757564,2.7557,847.644,316.095
3.50025,2.41579,-1.9169,36.0905,1.63249,13,29,4.15346,0.573309,34.7995,1.63445e-09,0.215223,0.350804,0.0757578,2.75604,847.617,316.046
3.50049,2.43747,-1.91573,36.158,1.62041,15,27,4.15493,0.570849,34.7172,1.6283e-09,0.219323,0.35282,0.0793535,2.79345,851.015,312.674
3.49932,2.44892,-1.90787,36.1318,1.60992,17,25,4.15634,0.568472,34.4781,1.62484e-09,0.220782,0.356281,0.0801362,2.8073,851.832,311.668
3.49755,2.47399,-1.90001,36.1154,1.59495,19,23,4.15828,0.557736,34.3154,1.60075e-09,0.244322,0.392296,0.108106,3.12018,875.208,287.553
3.49314,2.38978,-1.89295,36.7341,1.61002,21,21,4.16703,0.557845,26.6522,1.59877e-09,0.24896,0.403745,0.111028,3.16651,878.018,284.464
3.50266,2.42756,-1.89177,37.4094,1.59597,23,19,4.1568,0.559995,35.4973,1.60551e-09,0.241216,0.39305,0.105123,3.0971,873.148,289.382
3.49676,2.39479,-1.89685,37.27,1.57967,25,17,4.15947,0.549438,35.22,1.58454e-09,0.242087,0.38669,0.106435,3.09984,873.751,289.052
3.49809,2.47427,-1.88182,37.5757,1.56922,27,15,4.16734,0.550102,27.7262,1.57209e-09,0.256485,0.41493,0.116196,3.22876,882.085,280.093
3.49874,2.48388,-1.88058,37.6984,1.55801,29,13,4.1612,0.544727,35.614,1.57167e-09,0.257682,0.41706,0.117097,3.23561,882.446,279.681
3.48954,2.39753,-1.87904,37.5846,1.54664,31,11,4.16268,0.541122,35.7394,1.55914e-09,0.255461,0.414955,0.115787,3.22275,881.744,280.436
3.4906,2.46493,-1.8702,37.8381,1.53555,33,9,4.16437,0.530562,35.0896,1.53468e-09,0.251576,0.407682,0.113438,3.18982,879.654,282.589
3.48429,2.48078,-1.86814,37.4342,1.51587,35,7,4.16526,0.525067,35.2331,1.52195e-09,0.254053,0.412133,0.114659,3.20868,880.868,281.462
3.4751,2.39747,-1.85949,37.586,1.50871,37,5,4.17593,0.504624,27.1868,1.50108e-09,0.25193,0.409761,0.113188,3.1881,879.634,282.741
3.48217,2.467,-1.85805,38.0343,1.50145,39,3,4.16707,0.519072,35.4757,1.50328e-09,0.250836,0.402348,0.112342,3.17608,878.823,283.497
3.47148,2.40149,-1.86344,37.7217,1.48569,41,1,4.16877,0.512377,35.2426,1.48729e-09,0.254118,0.406736,0.114472,3.20344,880.851,281.487
4.04983,2.42764,-0.277907,10.0731,0.0777475,43,0,4.20296,0.0219139,6.1275,6.67109e-11,0.253011,0.407694,0.11363,3.19409,880.2,282.178
4.04455,2.36044,-0.288182,9.49838,0.0783391,45,0,4.20312,0.0237482,6.53074,7.19207e-11,0.254576,0.404984,0.115165,3.2079,881.312,281.187
4.04459,2.48467,-0.297349,8.97954,0.0871984,47,0,4.20393,0.0280845,6.22945,8.5708e-11,0.256627,0.410156,0.117297,3.23278,882.622,279.698
4.03824,2.3976,-0.30667,10.1208,0.0881131,49,0,4.20409,0.0268611,6.4095,8.16832e-11,0.261495,0.421282,0.119499,3.26601,884.72,277.601
4.06194,2.48475,-0.263541,7.98196,0.0761286,51,0,4.2044,0.0305395,6.29272,8.08937e-11,0.261495,0.421282,0.119499,3.26601,884.72,277.601
4.03613,2.40907,-0.313561,8.94722,0.0891283,53,0,4.20336,0.0265309,6.6874,8.10655e-11,0.261495,0.421282,0.119499,3.26601,884.72,277.601
4.05732,2.43476,-0.271668,8.21483,0.0770743,55,0,4.20387,0.0239918,6.25163,7.2692e-11,0.261495,0.421282,0.119499,3.26601,884.72,277.601
4.05179,2.45171,-0.284766,9.44725,0.080596,57,0,4.20414,0.0272946,6.20754,8.32646e-11,0.261495,0.421282,0.119499,3.26601,884.72,277.601
4.05502,2.47424,-0.281778,9.28997,0.0781355,59,0,4.20358,0.0279534,6.5329,8.45631e-11,0.261495,0.421282,0.119499,3.26601,884.72,277.601
4.05242,2.44421,-0.284644,9.26999,0.0787346,61,0,4.20342,0.0273516,6.58434,8.33953e-11,0.261495,0.421282,0.119499,3.26601,884.72,277.601
4.04812,2.36565,-0.288367,8.84115,0.0791022,63,0,4.20352,0.0281933,6.62634,8.57222e-11,0.261495,0.421282,0.119499,3.26601,884.72,277.601
3.98921,2.47801,-0.481064,9.77587,0.0789664,65,0,4.20322,0.024129,6.32859,7.33355e-11,0.261495,0.421282,0.119499,3.26601,884.72,277.601
4.05298,2.45399,-0.275274,7.95308,0.0800411,67,0,4.20353,0.0253558,6.22489,7.26323e-11,0.261495,0.421282,0.119499,3.26601,884.72,277.601
4.02676,2.34527,-0.331536,10.8619,0.09354,69,0,4.2029,0.0242799,6.32442,7.34277e-11,0.261495,0.421282,0.119499,3.26601,884.72,277.601
4.04997,2.34524,-0.2816,8.74013,0.0810822,71,0,4.20332,0.0250011,6.34095,7.62615e-11,0.261495,0.421282,0.119499,3.26601,884.72,277.601
4.05026,2.45187,-0.291218,8.1236,0.0811654,73,0,4.20336,0.0251825,6.17572,7.64007e-11,0.261495,0.421282,0.119499,3.26601,884.72,277.601
4.04947,2.46934,-0.295218,8.68982,0.0817336,75,0,4.20268,0.0251847,6.58605,7.61698e-11,0.261495,0.421282,0.119499,3.26601,884.72,277.601
4.04662,2.45599,-0.302544,8.76675,0.0821395,77,0,4.20293,0.0249633,6.92013,7.53451e-11,0.261495,0.421282,0.119499,3.26601,884.72,277.601
4.04502,2.44011,-0.306248,10.0977,0.0825715,79,0,4.20295,0.0253123,6.67732,7.65195e-11,0.261495,0.421282,0.119499,3.26601,884.72,277.601
3.98007,2.38187,-0.490534,9.86739,0.0825963,81,0,4.20322,0.0258437,6.56102,7.84437e-11,0.261495,0.421282,0.119499,3.26601,884.72,277.601
3.43665,2.36427,-2.38698,8.23023,0.0824197,83,0,4.20901,0.0575307,6.24312,7.80037e-11,0.261495,0.421282,0.119499,3.26601,884.72,277.601
3.42232,2.30897,-2.38705,9.56697,0.0821646,85,0,4.21222,0.0955413,9.07239,8.02827e-11,0.261495,0.421282,0.119499,3.26601,884.72,277.601
3.33085,2.22717,-2.65155,8.8491,0.0828442,87,0,4.21222,0.0821808,7.47045,6.78594e-11,0.261495,0.421282,0.119499,3.26601,884.72,277.601
3.48966,2.47005,-0.991784,10.4648,1.57547,89,0,4.19419,0.533332,8.79593,1.57424e-09,0.261495,0.421282,0.119499,3.26601,884.72,277.601
3.48285,2.46814,-0.99157,11.4659,1.55607,91,0,4.18871,0.526356,10.7662,1.55417e-09,0.261495,0.421282,0.119499,3.26601,884.72,277.601
3.47236,2.4821,-0.987045,11.5532,1.53049,93,0,4.19042,0.517249,10.1977,1.52932e-09,0.261495,0.421282,0.119499,3.26601,884.72,277.601
3.46217,2.46244,-0.980082,10.6789,1.50478,95,0,4.19253,0.508487,9.64261,1.50672e-09,0.261495,0.421282,0.119499,3.26601,884.72,277.601
3.44922,2.46279,-0.975332,11.6375,1.48338,97,0,4.19396,0.500563,8.7446,1.48258e-09,0.261495,0.421282,0.119499,3.26601,884.72,277.601
3.43588,2.473,-0.970257,11.7173,1.45961,99,0,4.19985,0.490273,8.52339,1.45584e-09,0.261495,0.421282,0.119499,3.26601,884.72,277.601
3.43716,2.48331,-0.96242,11.2741,1.432,101,0,4.19639,0.48439,9.99063,1.43742e-09,0.261495,0.421282,0.119499,3.26601,884.72,277.601
3.43128,2.49952,-0.956961,11.4693,1.40783,103,0,4.19833,0.475335,9.52055,1.40971e-09,0.261495,0.421282,0.119499,3.26601,884.72,277.601
3.42578,2.46672,-0.954133,11.2616,1.389,105,0,4.19844,0.467389,9.3297,1.39116e-09,0.261495,0.421282,0.119499,3.26601,884.72,277.601
3.41955,2.48485,-0.943213,11.164,1.35948,107,0,4.19974,0.460508,8.6853,1.36889e-09,0.261495,0.421282,0.119499,3.26601,884.72,277.601
3.40736,2.47258,-0.940332,11.7352,1.3458,109,0,4.20453,0.450057,8.55449,1.34301e-09,0.261495,0.421282,0.119499,3.26601,884.72,277.601
3.40862,2.48552,-0.934001,11.3769,1.31984,111,0,4.20156,0.445213,9.05766,1.32382e-09,0.261495,0.421282,0.119499,3.26601,884.72,277.601
3.4058,2.4998,-0.930823,11.4888,1.30841,112,0,4.2022,0.439953,9.04007,1.31227e-09,0.261495,0.421282,0.119499,3.26601,884.72,277.601