File: battery_final_dataset_clean.csv
File_x,AvgVoltage_x,MinVoltage,AvgCurrent_x,MaxTemp_x,DischargeCapacity_Ah,Cycle,RUL,File_y,AvgVoltage_y,AvgCurrent_y,MaxTemp_y,CycleCapacity_Ah,File,Avg_Battery_Impedance,Max_Battery_Impedance,Avg_Rectified_Impedance,Avg_Current_Ratio,Avg_Sense_Current,Avg_Battery_Current,SOH
00001.csv,3.47527,2.47061,-0.952767,12.3768,1.70599,1,17,00003.csv,4.19352,0.520792,8.79362,1.54061e-09,00002.csv,0.213929,0.384859,0.0841214,2.87031,856.063,308.673,1.0
00007.csv,3.47077,2.47071,-0.983889,11.6245,1.53237,3,15,00008.csv,4.18966,0.513528,9.37129,1.52048e-09,00014.csv,0.222013,0.395029,0.0893689,2.9309,860.851,303.513,0.89823
00011.csv,3.46284,2.46577,-0.976262,11.021,1.49531,5,13,00012.csv,4.19311,0.501276,9.97744,1.48582e-09,00018.csv,0.219014,0.391481,0.0873054,2.90716,859.136,305.499,0.876505
00017.csv,3.44087,2.48413,-0.970933,11.877,1.47412,7,11,00019.csv,4.1963,0.494706,8.54999,1.47238e-09,00030.csv,0.217848,0.374945,0.0879253,2.90169,859.021,305.219,0.864088
00023.csv,3.44967,2.4983,-0.958292,11.3474,1.44385,9,9,00024.csv,4.19519,0.484474,8.8773,1.43589e-09,00034.csv,0.22208,0.394381,0.0904309,2.94428,861.91,302.246,0.846344
00027.csv,3.44183,2.49194,-0.952784,11.5574,1.41319,11,7,00028.csv,4.19846,0.473344,8.7934,1.40572e-09,00046.csv,0.225867,0.394228,0.0935337,2.97381,864.212,299.646,0.828368
00033.csv,3.43012,2.4792,-0.962375,11.311,1.43848,13,5,00035.csv,4.20095,0.487987,8.87507,1.44926e-09,00058.csv,0.232248,0.396928,0.098152,3.02492,867.842,295.655,0.843194
00039.csv,3.44247,2.49157,-0.949764,11.1502,1.41547,15,3,00040.csv,4.19868,0.472575,9.11784,1.40525e-09,00070.csv,0.239094,0.407911,0.102284,3.07634,871.446,292.155,0.829705
00043.csv,3.43275,2.48891,-0.94343,11.6998,1.37851,17,1,00044.csv,4.19949,0.460581,8.77549,1.36993e-09,00082.csv,0.244621,0.413963,0.105658,3.11019,873.834,289.539,0.808043
00049.csv,3.41847,2.48222,-0.937155,11.7296,1.34788,19,0,00050.csv,4.20069,0.452677,9.25659,1.34512e-09,00086.csv,0.23559,0.40966,0.0989269,3.04127,868.703,294.676,0.790086
00053.csv,3.41568,2.48126,-0.923482,12.1862,1.37223,21,0,00054.csv,4.20168,0.444861,8.68212,1.32302e-09,00098.csv,0.237845,0.405621,0.10193,3.07162,871.124,292.334,0.804361
00057.csv,3.41478,2.49076,-0.932282,11.681,1.31085,23,0,00059.csv,4.20598,0.434991,8.67279,1.29884e-09,00110.csv,0.247142,0.418945,0.107305,3.13222,875.254,288.207,0.76838
00063.csv,3.40765,2.47924,-0.93165,11.8824,1.29526,25,0,00064.csv,4.20191,0.432988,8.66229,1.28755e-09,00122.csv,0.246573,0.411901,0.108436,3.13808,876.006,287.656,0.759245
00067.csv,3.40285,2.49573,-0.927363,11.7266,1.26709,27,0,00068.csv,4.20322,0.422867,9.11602,1.26017e-09,00134.csv,0.249287,0.418347,0.108767,3.14432,876.412,287.294,0.742734
00073.csv,3.39451,2.49511,-0.923682,11.8635,1.25138,29,0,00074.csv,4.20417,0.420224,9.12595,1.25159e-09,00138.csv,0.244547,0.416505,0.10577,3.12064,874.478,288.704,0.733522
00077.csv,3.39129,2.48733,-0.928228,12.2136,1.24094,31,0,00078.csv,4.20437,0.414418,8.99267,1.23416e-09,00150.csv,0.252381,0.424463,0.11103,3.17759,878.579,284.823,0.727401
00081.csv,3.38386,2.47697,-0.927054,12.4298,1.22391,33,0,00083.csv,4.20745,0.405322,8.40368,1.21185e-09,00154.csv,0.250069,0.425826,0.108798,3.15489,876.93,286.388,0.717419
00089.csv,3.4021,2.4796,-0.935687,12.4874,1.30256,35,0,00090.csv,4.20314,0.435659,8.99627,1.29678e-09,00166.csv,0.254295,0.413581,0.114259,3.20568,880.711,282.019,0.763522
00093.csv,3.39774,2.49702,-0.93957,12.6417,1.26732,37,0,00094.csv,4.20363,0.423466,9.06846,1.26054e-09,00170.csv,0.246843,0.421765,0.106754,3.13167,875.325,287.979,0.742866
00097.csv,3.39714,2.49981,-0.934724,11.4384,1.23396,39,0,00099.csv,4.20744,0.40955,8.57634,1.22339e-09,00182.csv,0.251783,0.427481,0.109785,3.16639,877.746,285.51,0.723309
00103.csv,3.38208,2.47734,-0.943123,12.6722,1.22746,41,0,00104.csv,4.20437,0.408717,9.0508,1.21911e-09,00184.csv,0.252605,0.404827,0.114167,3.19682,880.534,282.563,0.7195
00107.csv,3.38203,2.49483,-0.933014,12.102,1.19988,43,0,00108.csv,4.20479,0.40038,9.67292,1.19433e-09,00184.csv,0.252605,0.404827,0.114167,3.19682,880.534,282.563,0.703335
00113.csv,3.37296,2.47293,-0.935002,11.4551,1.18725,45,0,00114.csv,4.20466,0.394494,9.24423,1.18843e-09,00184.csv,0.252605,0.404827,0.114167,3.19682,880.534,282.563,0.695932
00117.csv,3.37017,2.49255,-0.940582,12.6353,1.18043,47,0,00118.csv,4.20473,0.393914,8.7644,1.17472e-09,00184.csv,0.252605,0.404827,0.114167,3.19682,880.534,282.563,0.691931
00121.csv,3.37311,2.49741,-0.938555,12.184,1.16329,49,0,00123.csv,4.20768,0.384424,8.05059,1.15346e-09,00184.csv,0.252605,0.404827,0.114167,3.19682,880.534,282.563,0.681887
00127.csv,3.36915,2.48006,-0.938912,11.4431,1.15578,51,0,00128.csv,4.20505,0.386249,9.43435,1.15208e-09,00184.csv,0.252605,0.404827,0.114167,3.19682,880.534,282.563,0.677484
00131.csv,3.36763,2.49991,-0.941405,11.5739,1.14089,53,0,00132.csv,4.20561,0.381563,9.18246,1.13802e-09,00184.csv,0.252605,0.404827,0.114167,3.19682,880.534,282.563,0.668758
00137.csv,3.37249,2.47469,-0.933117,11.9843,1.234,55,0,00139.csv,4.20734,0.410815,8.59767,1.22769e-09,00184.csv,0.252605,0.404827,0.114167,3.19682,880.534,282.563,0.723337
00143.csv,3.38382,2.4794,-0.956444,12.656,1.22582,57,0,00144.csv,4.20371,0.407634,9.28396,1.217e-09,00184.csv,0.252605,0.404827,0.114167,3.19682,880.534,282.563,0.718538
00147.csv,3.38414,2.4835,-0.952353,12.7801,1.20218,59,0,00148.csv,4.20364,0.401385,11.0089,1.19643e-09,00184.csv,0.252605,0.404827,0.114167,3.19682,880.534,282.563,0.704686
00153.csv,3.36454,2.48824,-0.951706,13.2494,1.19788,61,0,00155.csv,4.20777,0.401449,8.64548,1.20276e-09,00184.csv,0.252605,0.404827,0.114167,3.19682,880.534,282.563,0.70216
00157.csv,3.37876,2.49819,-0.945772,13.1025,1.20466,63,0,00164.csv,4.2043,0.391157,11.2723,1.16799e-09,00184.csv,0.252605,0.404827,0.114167,3.19682,880.534,282.563,0.706138
00161.csv,3.37576,2.4716,-0.957775,12.6123,1.18363,65,0,00171.csv,4.20727,0.41113,8.85545,1.2287e-09,00184.csv,0.252605,0.404827,0.114167,3.19682,880.534,282.563,0.693809
00165.csv,3.62871,3.42706,-0.979204,9.05447,0.547498,67,0,00176.csv,4.20306,0.406966,10.5481,1.21503e-09,00184.csv,0.252605,0.404827,0.114167,3.19682,880.534,282.563,0.320927
00173.csv,3.39009,2.48209,-0.952668,13.1794,1.23891,69,0,00180.csv,4.20339,0.399384,11.1504,1.19226e-09,00184.csv,0.252605,0.404827,0.114167,3.19682,880.534,282.563,0.726214
00177.csv,3.38624,2.48172,-0.955428,13.2316,1.21331,71,0,00183.csv,4.20801,0.392774,8.68278,1.17623e-09,00184.csv,0.252605,0.404827,0.114167,3.19682,880.534,282.563,0.711205
00181.csv,3.38188,2.49921,-0.957312,12.6753,1.18852,73,0,00183.csv,4.20801,0.392774,8.68278,1.17623e-09,00184.csv,0.252605,0.404827,0.114167,3.19682,880.534,282.563,0.696677